Tiempo(s)	Voltaje(V)
0.000061	1.86318
0.000647	1.43118
0.001187	1.07019
0.001717	0.95573
0.002245	1.10645
0.002808	1.48924
0.003340	1.90427
0.003869	2.18066
0.004398	2.21370
0.004947	1.96711
0.005477	1.57223
0.006004	1.17654
0.006534	0.97426
0.007062	1.02422
0.007589	1.31919
0.008117	1.73825
0.008644	2.09848
0.009193	2.23464
0.009721	2.09929
0.010250	1.75275
0.010779	1.33450
0.011308	1.02744
0.011836	0.96621
0.012364	1.17090
0.012892	1.54725
0.013419	1.95502
0.013949	2.20886
0.014477	2.18711
0.015007	1.92602
0.015535	1.52389
0.016064	1.13867
0.016594	0.96298
0.017121	1.05327
0.017676	1.38365
0.018204	1.80512
0.018733	2.12910
0.019262	2.23384
0.019790	2.06545
0.020317	1.68991
0.020844	1.29019
0.021372	1.00488
0.021902	0.97185
0.022429	1.21521
0.022959	1.60526
0.023486	1.99611
0.024015	2.24512
0.024543	2.17744
0.025072	1.87687
0.025599	1.46991
0.026132	1.08389
0.026674	0.95251
0.027204	1.08630
0.027735	1.42796
0.028265	1.84862
0.028792	2.15810
0.029321	2.22981
0.029847	2.02995
0.030376	1.65526
0.030906	1.24346
0.031434	0.98877
0.031964	0.99682
0.032492	1.24829
0.033022	1.65848
0.033549	2.04204
0.034077	2.23464
0.034663	2.11782
0.035192	1.79626
0.035721	1.38123
0.036249	1.04119
0.036777	0.94848
0.037306	1.13867
0.037835	1.49891
0.038361	1.91796
0.038889	2.19758
0.039420	2.20725
0.039950	1.96872
0.040479	1.56900
0.041006	1.17573
0.041534	0.97024
0.042062	1.02502
0.042590	1.31839
0.043119	1.73341
0.043646	2.08398
0.044174	2.23706
0.044701	2.11702
0.045229	1.76000
0.045758	1.34739
0.046286	1.03957
0.046814	0.95573
0.047343	1.15640
0.047872	1.53758
0.048401	1.94536
0.048929	2.19919
0.049457	2.20725
0.049988	1.94374
0.050518	1.52953
0.051047	1.15076
0.051574	0.96379
0.052103	1.03393
0.052633	1.35384
0.053160	1.77128
0.053690	2.10412
0.054218	2.24109
0.054746	2.09123
0.055274	1.71891
0.055803	1.31919
0.056330	1.02422
0.056858	0.95976
0.057386	1.18057
0.057914	1.57303
0.058443	1.96308
0.058972	2.21289
0.059501	2.19275
0.060030	1.90749
0.060559	1.50777
0.061087	1.13545
0.061615	0.95251
0.062141	1.05408
0.062669	1.38123
0.063198	1.79142
0.063726	2.13635
0.064254	2.23223
0.064781	2.07190
0.065310	1.70441
0.065837	1.29180
0.066366	1.00166
0.066894	0.97668
0.067421	1.20313
0.067948	1.63426
0.068575	2.05332
0.069103	2.23142
0.069630	2.14280
0.070158	1.82204
0.070688	1.39493
0.071220	1.06858
0.071749	0.95573
0.072280	1.11934
0.072808	1.48602
0.073336	1.89863
0.073863	2.17825
0.074392	2.21934
0.074919	1.98564
0.075447	1.58995
0.075976	1.19829
0.076503	0.97910
0.077031	1.01052
0.077559	1.30066
0.078088	1.70199
0.078619	2.07754
0.079148	2.23706
0.079679	2.11702
0.080207	1.78417
0.080735	1.36753
0.081262	1.04360
0.081790	0.96137
0.082318	1.14351
0.082847	1.51422
0.083374	1.92602
0.083903	2.20000
0.084430	2.21289
0.084960	1.95583
0.085488	1.56014
0.086019	1.17171
0.086549	0.96137
0.087076	1.01858
0.087603	1.32886
0.088130	1.73744
0.088657	2.09284
0.089185	2.23787
0.089715	2.10896
0.090245	1.74872
0.090783	1.33047
0.091314	1.02744
0.091845	0.96782
0.092376	1.17654
0.092904	1.55772
0.093431	1.96389
0.093959	2.21289
0.094488	2.19275
0.095017	1.92199
0.095545	1.51422
0.096073	1.13706
0.096600	0.96218
0.097129	1.05247
0.097657	1.36592
0.098185	1.78820
0.098712	2.12427
0.099241	2.23223
0.099769	2.07593
0.100298	1.72455
0.100829	1.28938
0.101356	1.00971
0.101886	0.96379
0.102413	1.20393
0.102942	1.58915
0.103470	1.98886
0.103999	2.22095
0.104527	2.17664
0.105055	1.89702
0.105582	1.48602
0.106110	1.11209
0.106639	0.95493
0.107168	1.06374
0.107697	1.39815
0.108225	1.81640
0.108754	2.14038
0.109283	2.23464
0.109811	2.05412
0.110339	1.67540
0.110870	1.27085
0.111399	0.99602
0.111929	0.98232
0.112456	1.23374
0.112985	1.62943
0.113514	2.01626
0.114041	2.22498
0.114568	2.16213
0.115098	1.86479
0.115626	1.45460
0.116154	1.08791
0.116682	0.95654
0.117210	1.08469
0.117738	1.43199
0.118266	1.84862
0.118794	2.15972
0.119323	2.22659
0.119850	2.03156
0.120379	1.65043
0.120909	1.22569
0.121439	0.98877
0.121967	0.99602
0.122495	1.24507
0.123023	1.65929
0.123552	2.03640
0.124079	2.22578
0.124606	2.15730
0.125135	1.84379
0.125663	1.42635
0.126191	1.07986
0.126719	0.95654
0.127246	1.09114
0.127774	1.46104
0.128304	1.88090
0.128831	2.17341
0.129359	2.22175
0.129888	2.00900
0.130414	1.62701
0.130942	1.22166
0.131470	0.98071
0.131999	1.00649
0.132527	1.27327
0.133055	1.68346
0.133583	2.06867
0.134111	2.22739
0.134641	2.13393
0.135169	1.81881
0.135696	1.33289
0.136399	0.99118
0.136928	0.98393
0.137456	1.22891
0.137985	1.62057
0.138515	2.01384
0.139043	2.22659
0.139570	2.16294
0.140099	1.86640
0.140627	1.46266
0.141156	1.09597
0.141684	0.95251
0.142212	1.08389
0.142740	1.42877
0.143267	1.84460
0.143795	2.16133
0.144324	2.22900
0.144853	2.02834
0.145381	1.64474
0.145908	1.23863
0.146437	0.98957
0.146966	0.99279
0.147493	1.24668
0.148021	1.65365
0.148550	2.03076
0.149079	2.22900
0.149608	2.16697
0.150135	1.84460
0.150663	1.42635
0.151190	1.08469
0.151718	0.95573
0.152247	1.10483
0.152776	1.46427
0.153303	1.87284
0.153845	2.17986
0.154378	2.20967
0.154908	1.99209
0.155435	1.60445
0.155963	1.20232
0.156490	0.98232
0.157017	1.01052
0.157545	1.27972
0.158075	1.69716
0.158603	2.07029
0.159132	2.22820
0.159660	2.12910
0.160187	1.80190
0.160716	1.37559
0.161243	1.05569
0.161772	0.96137
0.162301	1.12336
0.162830	1.50052
0.163357	1.91313
0.163884	2.20483
0.164413	2.21047
0.164940	1.97517
0.165468	1.57223
0.165998	1.18782
0.166525	0.96943
0.167053	1.02824
0.167582	1.30953
0.168110	1.72777
0.168639	2.08721
0.169167	2.23223
0.169695	2.11460
0.170223	1.77450
0.170751	1.34820
0.171280	1.04038
0.171808	0.96137
0.172337	1.14834
0.172865	1.53033
0.173392	1.93569
0.173920	2.19275
0.174447	2.20161
0.174976	1.94858
0.175502	1.55047
0.176034	1.15479
0.176562	0.96460
0.177090	1.03555
0.177619	1.33853
0.178147	1.75839
0.178674	2.10654
0.179203	2.23464
0.179731	2.09607
0.180260	1.74550
0.180787	1.32645
0.181315	1.02663
0.181844	0.96862
0.182374	1.16365
0.182901	1.55934
0.183428	1.95664
0.183955	2.21209
0.184484	2.19517
0.185014	1.92119
0.185545	1.50858
0.186071	1.14028
0.186601	0.96218
0.187129	1.03796
0.187658	1.36834
0.188186	1.79142
0.188714	2.11621
0.189244	2.23384
0.189772	2.08076
0.190299	1.71166
0.190828	1.29422
0.191356	1.01535
0.191885	0.95493
0.192413	1.19829
0.192941	1.59479
0.193469	1.99047
0.193997	2.21450
0.194525	2.18308
0.195053	1.89863
0.195581	1.48360
0.196112	1.12175
0.196639	0.95412
0.197166	1.06213
0.197695	1.39976
0.198223	1.80592
0.198750	2.13877
0.199279	2.23464
0.199807	2.06304
0.200335	1.68507
0.200862	1.27488
0.201390	1.00246
0.201920	0.97829
0.202449	1.21682
0.202976	1.61896
0.203503	1.99934
0.204031	2.22578
0.204561	2.16777
0.205088	1.87123
0.205615	1.46427
0.206144	1.10725
0.206672	0.94365
0.207199	1.07905
0.207726	1.41910
0.208255	1.83896
0.208783	2.15166
0.209313	2.23464
0.209841	2.03076
0.210369	1.64796
0.210897	1.25232
0.211427	0.98232
0.211955	0.98877
0.212484	1.26038
0.213012	1.64554
0.213543	2.03479
0.214073	2.22900
0.214601	2.15649
0.215128	1.84298
0.215656	1.42957
0.216184	1.08308
0.216713	0.95090
0.217242	1.10242
0.217770	1.45540
0.218299	1.87607
0.218834	2.16294
0.219363	2.21772
0.219891	2.00820
0.220421	1.61976
0.220949	1.21441
0.221476	0.97990
0.222004	1.00407
0.222531	1.27730
0.223060	1.69071
0.223590	2.05815
0.224117	2.22175
0.224645	2.13796
0.225174	1.81076
0.225702	1.37962
0.226232	1.05972
0.226760	0.95976
0.227288	1.12095
0.227818	1.49327
0.228347	1.90668
0.228875	2.18711
0.229404	2.22014
0.229932	1.98081
0.230460	1.57787
0.230989	1.19668
0.231516	0.97507
0.232046	1.01697
0.232576	1.31033
0.233102	1.72536
0.233631	2.08237
0.234160	2.23787
0.234689	2.10412
0.235218	1.77772
0.235747	1.36109
0.236276	1.03313
0.236804	0.96298
0.237333	1.15076
0.237861	1.52228
0.238388	1.93488
0.238919	2.20483
0.239446	2.19919
0.239974	1.95341
0.240503	1.54886
0.241031	1.16365
0.241559	0.96379
0.242086	1.03232
0.242616	1.33611
0.243144	1.75436
0.243671	2.10976
0.244200	2.23464
0.244727	2.10090
0.245257	1.74791
0.245784	1.33209
0.246313	1.02905
0.246840	0.96862
0.247368	1.17171
0.247895	1.55853
0.248423	1.95583
0.248951	2.21209
0.249479	2.19355
0.250007	1.93085
0.250536	1.51583
0.251064	1.14834
0.251592	0.96540
0.252121	1.03555
0.252649	1.36270
0.253177	1.77934
0.253706	2.12104
0.254235	2.23706
0.254763	2.08559
0.255291	1.72213
0.255818	1.30550
0.256347	1.01535
0.256875	0.96137
0.257403	1.18782
0.257931	1.58592
0.258460	1.98645
0.258989	2.21531
0.259516	2.18469
0.260044	1.90749
0.260571	1.49085
0.261100	1.12739
0.261628	0.95412
0.262156	1.05972
0.262685	1.39090
0.263213	1.79867
0.263741	2.13796
0.264272	2.23142
0.264800	2.05251
0.265327	1.68991
0.265856	1.28052
0.266385	1.00085
0.266915	0.97507
0.267442	1.21843
0.267970	1.61090
0.268498	2.00498
0.269027	2.22336
0.269556	2.17100
0.270083	1.88010
0.270613	1.47152
